Epoch	Learning Rate	Train Loss	Test Loss	Train Acc.	Test Acc.	Train Acc5.	Test Acc5.	
0	0.010000	1.299778	n/a	11.698000	n/a	55.190000	n/a	
1	0.010000	0.534666	n/a	24.100000	n/a	77.826000	n/a	
2	0.010000	0.483221	n/a	32.332000	n/a	85.198000	n/a	
3	0.010000	0.437482	n/a	38.932000	n/a	88.836000	n/a	
4	0.010000	0.514287	n/a	31.140000	n/a	82.274000	n/a	
5	0.010000	0.467064	n/a	36.208000	n/a	86.570000	n/a	
6	0.010000	0.418373	n/a	42.566000	n/a	90.068000	n/a	
7	0.010000	0.413475	n/a	44.368000	n/a	90.342000	n/a	
8	0.010000	0.382114	n/a	48.792000	n/a	91.718000	n/a	
9	0.010000	0.407347	n/a	46.920000	n/a	90.892000	n/a	
10	0.010000	0.385533	n/a	49.630000	n/a	91.808000	n/a	
11	0.010000	0.355687	n/a	53.848000	n/a	93.206000	n/a	
12	0.010000	0.340414	n/a	55.868000	n/a	93.686000	n/a	
13	0.010000	0.324637	n/a	57.954000	n/a	94.286000	n/a	
14	0.010000	0.304987	n/a	60.642000	n/a	95.122000	n/a	
15	0.010000	0.313459	n/a	59.708000	n/a	94.422000	n/a	
16	0.010000	0.421793	n/a	47.176000	n/a	89.960000	n/a	
17	0.010000	0.373380	n/a	52.816000	n/a	92.328000	n/a	
18	0.010000	0.349896	n/a	56.288000	n/a	93.230000	n/a	
19	0.010000	0.327569	n/a	59.658000	n/a	94.326000	n/a	
20	0.010000	0.293204	n/a	63.054000	n/a	95.250000	n/a	
21	0.010000	0.286487	n/a	63.992000	n/a	95.482000	n/a	
22	0.010000	0.288250	n/a	63.238000	n/a	95.382000	n/a	
23	0.010000	0.281158	n/a	64.508000	n/a	95.680000	n/a	
24	0.010000	0.259387	n/a	66.888000	n/a	96.400000	n/a	
25	0.010000	0.267177	n/a	66.068000	n/a	96.070000	n/a	
26	0.010000	0.413819	n/a	50.420000	n/a	90.000000	n/a	
27	0.010000	0.330601	n/a	59.208000	n/a	94.050000	n/a	
28	0.010000	0.299649	n/a	62.290000	n/a	94.668000	n/a	
29	0.010000	0.292004	n/a	63.378000	n/a	95.228000	n/a	
30	0.010000	0.259881	n/a	67.426000	n/a	96.094000	n/a	
31	0.010000	0.243324	n/a	69.956000	n/a	96.680000	n/a	
32	0.010000	0.232491	n/a	71.134000	n/a	96.782000	n/a	
33	0.010000	0.226571	n/a	72.258000	n/a	96.904000	n/a	
34	0.010000	0.229534	n/a	71.846000	n/a	96.560000	n/a	
35	0.010000	0.251760	n/a	68.262000	n/a	96.346000	n/a	
36	0.010000	0.221029	n/a	72.960000	n/a	97.182000	n/a	
37	0.010000	0.203223	n/a	75.324000	n/a	97.368000	n/a	
38	0.010000	0.204835	n/a	75.308000	n/a	97.412000	n/a	
39	0.010000	0.196003	n/a	76.712000	n/a	97.726000	n/a	
40	0.010000	0.208763	n/a	74.378000	n/a	97.300000	n/a	
41	0.010000	0.278986	n/a	70.124000	n/a	95.982000	n/a	
42	0.010000	0.242416	n/a	73.082000	n/a	96.784000	n/a	
43	0.010000	0.228315	n/a	74.136000	n/a	96.944000	n/a	
44	0.010000	0.195413	n/a	76.772000	n/a	97.598000	n/a	
45	0.010000	0.199739	n/a	76.504000	n/a	97.580000	n/a	
46	0.010000	0.192737	n/a	77.674000	n/a	97.786000	n/a	
47	0.010000	0.207381	n/a	75.904000	n/a	97.530000	n/a	
48	0.010000	0.156583	n/a	78.850000	n/a	98.270000	n/a	
49	0.010000	0.142872	n/a	80.390000	n/a	98.568000	n/a	
50	0.010000	0.136012	n/a	81.282000	n/a	98.590000	n/a	
51	0.010000	0.131829	n/a	81.896000	n/a	98.728000	n/a	
52	0.010000	0.128120	n/a	82.210000	n/a	98.690000	n/a	
53	0.010000	0.125764	n/a	82.686000	n/a	98.794000	n/a	
54	0.010000	0.123875	n/a	82.888000	n/a	98.862000	n/a	
55	0.010000	0.121375	n/a	83.444000	n/a	98.832000	n/a	
56	0.010000	0.119073	n/a	83.574000	n/a	98.884000	n/a	
57	0.010000	0.116598	n/a	83.892000	n/a	98.888000	n/a	
58	0.010000	0.113841	n/a	84.428000	n/a	98.926000	n/a	
59	0.010000	0.112654	n/a	84.492000	n/a	98.980000	n/a	
60	0.010000	0.109390	n/a	84.892000	n/a	99.104000	n/a	
61	0.010000	0.108727	n/a	84.972000	n/a	99.010000	n/a	
62	0.010000	0.106612	n/a	85.422000	n/a	99.076000	n/a	
63	0.010000	0.104797	n/a	85.678000	n/a	99.098000	n/a	
64	0.010000	0.102425	n/a	86.140000	n/a	99.134000	n/a	
65	0.010000	0.100965	n/a	86.238000	n/a	99.108000	n/a	
66	0.010000	0.100675	n/a	86.346000	n/a	99.108000	n/a	
67	0.010000	0.098858	n/a	86.514000	n/a	99.178000	n/a	
68	0.010000	0.097767	n/a	86.582000	n/a	99.178000	n/a	
69	0.010000	0.096246	n/a	86.938000	n/a	99.232000	n/a	
70	0.010000	0.095612	n/a	86.814000	n/a	99.230000	n/a	
71	0.010000	0.093337	n/a	87.442000	n/a	99.216000	n/a	
72	0.010000	0.092823	n/a	87.286000	n/a	99.274000	n/a	
73	0.010000	0.091539	n/a	87.500000	n/a	99.278000	n/a	
74	0.010000	0.090065	n/a	87.766000	n/a	99.272000	n/a	
75	0.010000	0.088986	n/a	87.856000	n/a	99.318000	n/a	
76	0.010000	0.088373	n/a	87.980000	n/a	99.304000	n/a	
77	0.010000	0.087826	n/a	87.902000	n/a	99.364000	n/a	
78	0.010000	0.086960	n/a	88.082000	n/a	99.312000	n/a	
79	0.010000	0.085933	n/a	88.254000	n/a	99.444000	n/a	
80	0.010000	0.084643	n/a	88.532000	n/a	99.388000	n/a	
81	0.010000	0.083696	n/a	88.690000	n/a	99.412000	n/a	
82	0.010000	0.082814	n/a	88.798000	n/a	99.404000	n/a	
83	0.010000	0.082517	n/a	88.728000	n/a	99.426000	n/a	
84	0.010000	0.081687	n/a	88.972000	n/a	99.406000	n/a	
85	0.010000	0.080902	n/a	89.070000	n/a	99.390000	n/a	
86	0.010000	0.078216	n/a	89.536000	n/a	99.436000	n/a	
87	0.010000	0.079936	n/a	89.096000	n/a	99.478000	n/a	
88	0.010000	0.078117	n/a	89.484000	n/a	99.502000	n/a	
89	0.010000	0.077306	n/a	89.562000	n/a	99.444000	n/a	
90	0.010000	0.077047	n/a	89.598000	n/a	99.432000	n/a	
91	0.010000	0.076921	n/a	89.598000	n/a	99.414000	n/a	
92	0.010000	0.075813	n/a	89.792000	n/a	99.482000	n/a	
93	0.010000	0.075530	n/a	89.840000	n/a	99.462000	n/a	
94	0.010000	0.075572	n/a	89.750000	n/a	99.490000	n/a	
95	0.010000	0.073918	n/a	90.128000	n/a	99.516000	n/a	
96	0.010000	0.073714	n/a	90.110000	n/a	99.480000	n/a	
97	0.010000	0.073370	n/a	90.242000	n/a	99.486000	n/a	
98	0.010000	0.072499	n/a	90.232000	n/a	99.544000	n/a	
99	0.010000	0.071958	n/a	90.370000	n/a	99.530000	n/a	
100	0.010000	0.071560	n/a	90.432000	n/a	99.556000	n/a	
101	0.010000	0.072513	n/a	90.190000	n/a	99.486000	n/a	
102	0.010000	0.070854	n/a	90.492000	n/a	99.528000	n/a	
103	0.010000	0.068453	n/a	90.930000	n/a	99.542000	n/a	
104	0.010000	0.070179	n/a	90.558000	n/a	99.534000	n/a	
105	0.010000	0.069182	n/a	90.788000	n/a	99.532000	n/a	
106	0.010000	0.068208	n/a	90.894000	n/a	99.564000	n/a	
107	0.010000	0.068152	n/a	90.838000	n/a	99.580000	n/a	
108	0.010000	0.067390	n/a	90.998000	n/a	99.550000	n/a	
109	0.010000	0.067099	n/a	90.968000	n/a	99.528000	n/a	
110	0.010000	0.066871	n/a	91.084000	n/a	99.552000	n/a	
111	0.010000	0.066081	n/a	91.238000	n/a	99.576000	n/a	
112	0.010000	0.067124	n/a	91.088000	n/a	99.572000	n/a	
113	0.010000	0.065711	n/a	91.318000	n/a	99.556000	n/a	
114	0.010000	0.064523	n/a	91.382000	n/a	99.606000	n/a	
115	0.010000	0.065318	n/a	91.346000	n/a	99.610000	n/a	
116	0.010000	0.065697	n/a	91.208000	n/a	99.552000	n/a	
117	0.010000	0.063396	n/a	91.646000	n/a	99.624000	n/a	
118	0.010000	0.064196	n/a	91.452000	n/a	99.602000	n/a	
119	0.010000	0.063566	n/a	91.510000	n/a	99.604000	n/a	
120	0.010000	0.062891	n/a	91.706000	n/a	99.610000	n/a	
121	0.010000	0.062988	n/a	91.598000	n/a	99.620000	n/a	
122	0.010000	0.062405	n/a	91.688000	n/a	99.634000	n/a	
123	0.010000	0.062467	n/a	91.674000	n/a	99.610000	n/a	
124	0.010000	0.061148	n/a	91.864000	n/a	99.628000	n/a	
125	0.010000	0.062410	n/a	91.658000	n/a	99.616000	n/a	
126	0.010000	0.060832	n/a	92.022000	n/a	99.594000	n/a	
127	0.010000	0.059955	n/a	92.162000	n/a	99.646000	n/a	
128	0.010000	0.061108	n/a	91.842000	n/a	99.632000	n/a	
129	0.010000	0.059161	n/a	92.212000	n/a	99.704000	n/a	
130	0.010000	0.060042	n/a	92.076000	n/a	99.636000	n/a	
131	0.010000	0.058860	n/a	92.142000	n/a	99.648000	n/a	
132	0.010000	0.059199	n/a	92.146000	n/a	99.646000	n/a	
133	0.010000	0.059406	n/a	92.164000	n/a	99.594000	n/a	
134	0.010000	0.059488	n/a	92.052000	n/a	99.650000	n/a	
135	0.010000	0.059123	n/a	92.252000	n/a	99.656000	n/a	
136	0.010000	0.057596	n/a	92.418000	n/a	99.654000	n/a	
137	0.010000	0.059170	n/a	92.172000	n/a	99.674000	n/a	
138	0.010000	0.057051	n/a	92.434000	n/a	99.634000	n/a	
139	0.010000	0.056591	n/a	92.590000	n/a	99.646000	n/a	
140	0.010000	0.057279	0.094992	92.506000	87.050000	99.654000	98.720000	
141	0.010000	0.056270	0.109941	92.634000	84.950000	99.664000	98.450000	
142	0.010000	0.055495	0.099810	92.702000	86.510000	99.670000	98.620000	
143	0.010000	0.054959	0.095287	92.812000	87.170000	99.658000	98.770000	
144	0.010000	0.055401	0.106821	92.698000	86.120000	99.706000	98.170000	
145	0.010000	0.055409	0.102343	92.718000	86.200000	99.710000	98.520000	
146	0.010000	0.055561	0.103908	92.576000	86.250000	99.700000	98.280000	
147	0.010000	0.055080	0.092768	92.802000	87.360000	99.682000	98.750000	
148	0.010000	0.054768	0.102316	92.778000	86.170000	99.690000	98.430000	
149	0.010000	0.055031	0.092538	92.708000	87.480000	99.662000	98.840000	
150	0.001000	0.039508	0.076339	95.098000	89.520000	99.836000	99.140000	
151	0.001000	0.033886	0.075882	96.000000	89.760000	99.850000	99.090000	
152	0.001000	0.031610	0.075098	96.356000	89.780000	99.864000	99.040000	
153	0.001000	0.030508	0.074355	96.454000	89.900000	99.830000	99.090000	
154	0.001000	0.029111	0.074642	96.710000	90.020000	99.864000	98.970000	
155	0.001000	0.028682	0.074171	96.716000	90.160000	99.896000	98.900000	
156	0.001000	0.027739	0.074551	96.814000	89.970000	99.864000	98.970000	
157	0.001000	0.027148	0.075306	97.028000	90.060000	99.870000	98.850000	
158	0.001000	0.026731	0.075178	97.044000	90.020000	99.846000	98.950000	
159	0.001000	0.026168	0.074492	97.070000	90.040000	99.888000	98.910000	
160	0.001000	0.025523	0.074490	97.220000	90.250000	99.882000	98.880000	
161	0.001000	0.025140	0.075131	97.222000	90.040000	99.872000	98.970000	
162	0.001000	0.024586	0.075019	97.302000	90.080000	99.878000	98.850000	
163	0.001000	0.024512	0.075927	97.334000	89.960000	99.862000	98.780000	
164	0.001000	0.024358	0.076166	97.388000	89.820000	99.882000	98.880000	
165	0.001000	0.023446	0.075478	97.492000	89.940000	99.880000	98.810000	
166	0.001000	0.023708	0.076628	97.418000	89.940000	99.884000	98.690000	
167	0.001000	0.022727	0.075983	97.552000	90.010000	99.908000	98.750000	
168	0.001000	0.023011	0.076247	97.494000	90.110000	99.910000	98.710000	
169	0.001000	0.023000	0.076008	97.536000	89.920000	99.894000	98.660000	
170	0.001000	0.022353	0.076793	97.622000	89.840000	99.894000	98.590000	
171	0.001000	0.022109	0.076914	97.642000	89.890000	99.890000	98.730000	
172	0.001000	0.021843	0.077779	97.750000	89.790000	99.882000	98.570000	
173	0.001000	0.021439	0.076649	97.728000	89.950000	99.884000	98.540000	
174	0.001000	0.021003	0.076443	97.838000	89.900000	99.876000	98.700000	
175	0.001000	0.021189	0.076102	97.750000	89.940000	99.876000	98.690000	
176	0.001000	0.020816	0.076812	97.840000	89.820000	99.894000	98.600000	
177	0.001000	0.020455	0.076584	97.854000	89.930000	99.910000	98.720000	
178	0.001000	0.020603	0.076228	97.898000	89.870000	99.896000	98.730000	
179	0.001000	0.020769	0.077153	97.898000	89.820000	99.890000	98.520000	
180	0.001000	0.020676	0.077447	97.816000	89.790000	99.878000	98.520000	
181	0.001000	0.019284	0.077420	98.054000	89.810000	99.902000	98.460000	
182	0.001000	0.019893	0.078589	97.936000	89.690000	99.900000	98.460000	
183	0.001000	0.019800	0.077597	97.912000	89.790000	99.886000	98.600000	
184	0.001000	0.019888	0.078720	97.962000	89.490000	99.890000	98.480000	
185	0.001000	0.019482	0.077386	97.988000	89.760000	99.908000	98.480000	
186	0.001000	0.019051	0.077123	98.036000	89.850000	99.912000	98.550000	
187	0.001000	0.019113	0.078186	98.062000	89.860000	99.886000	98.510000	
188	0.001000	0.019002	0.078292	98.098000	89.670000	99.896000	98.500000	
189	0.001000	0.019069	0.078130	98.072000	89.750000	99.912000	98.360000	
190	0.001000	0.018760	0.077958	98.094000	89.700000	99.916000	98.490000	
191	0.001000	0.018853	0.079511	98.026000	89.640000	99.904000	98.480000	
192	0.001000	0.017966	0.078985	98.174000	89.740000	99.906000	98.310000	
193	0.001000	0.017419	0.079550	98.320000	89.640000	99.922000	98.290000	
194	0.001000	0.018219	0.077830	98.180000	89.770000	99.906000	98.440000	
195	0.001000	0.018236	0.080368	98.132000	89.510000	99.898000	98.400000	
196	0.001000	0.017900	0.079944	98.262000	89.460000	99.892000	98.200000	
197	0.001000	0.017616	0.080443	98.226000	89.830000	99.902000	98.300000	
198	0.001000	0.017378	0.078512	98.278000	89.830000	99.918000	98.320000	
199	0.001000	0.017195	0.078806	98.304000	89.780000	99.894000	98.330000	
200	0.001000	0.017180	0.078870	98.268000	90.000000	99.906000	98.230000	
201	0.001000	0.017220	0.078883	98.280000	89.780000	99.912000	98.290000	
202	0.001000	0.017023	0.079291	98.300000	89.750000	99.906000	98.350000	
203	0.001000	0.016629	0.078763	98.370000	89.800000	99.916000	98.240000	
204	0.001000	0.017067	0.080298	98.326000	89.810000	99.888000	98.140000	
205	0.001000	0.016548	0.078173	98.366000	89.980000	99.910000	98.270000	
206	0.001000	0.016482	0.079449	98.424000	89.860000	99.926000	98.280000	
207	0.001000	0.016622	0.079602	98.334000	89.810000	99.922000	98.250000	
208	0.001000	0.016352	0.079573	98.378000	89.710000	99.936000	98.300000	
209	0.001000	0.016438	0.079614	98.406000	89.940000	99.898000	98.240000	
210	0.001000	0.016259	0.079203	98.402000	89.740000	99.922000	98.270000	
211	0.001000	0.016056	0.079259	98.440000	89.980000	99.908000	98.180000	
212	0.001000	0.015774	0.080745	98.496000	89.620000	99.916000	98.290000	
213	0.001000	0.016052	0.080315	98.430000	89.790000	99.926000	98.100000	
214	0.001000	0.015601	0.079193	98.512000	89.830000	99.932000	98.130000	
215	0.001000	0.015240	0.079598	98.554000	89.760000	99.930000	98.140000	
216	0.001000	0.015886	0.081343	98.428000	89.720000	99.932000	98.130000	
217	0.001000	0.015535	0.079079	98.508000	89.870000	99.930000	98.060000	
218	0.001000	0.015434	0.080796	98.480000	89.610000	99.930000	98.100000	
219	0.001000	0.015216	0.080844	98.530000	89.530000	99.934000	98.150000	
220	0.001000	0.015068	0.080590	98.570000	89.660000	99.920000	98.240000	
221	0.001000	0.014787	0.079053	98.626000	89.980000	99.920000	98.180000	
222	0.001000	0.014864	0.080397	98.632000	89.620000	99.932000	97.980000	
223	0.001000	0.015043	0.081041	98.564000	89.570000	99.922000	98.280000	
224	0.001000	0.014837	0.081398	98.600000	89.610000	99.918000	98.130000	
225	0.000100	0.014267	0.080100	98.674000	89.730000	99.924000	98.120000	
226	0.000100	0.013469	0.079607	98.762000	89.840000	99.936000	98.160000	
227	0.000100	0.012973	0.079926	98.894000	89.770000	99.938000	98.100000	
228	0.000100	0.012767	0.079736	98.930000	89.830000	99.940000	98.140000	
229	0.000100	0.013212	0.079746	98.806000	89.930000	99.930000	98.140000	
230	0.000100	0.012677	0.080007	98.930000	89.970000	99.946000	98.080000	
231	0.000100	0.012757	0.080021	98.926000	89.800000	99.946000	98.050000	
232	0.000100	0.012537	0.079919	98.910000	89.930000	99.940000	97.970000	
233	0.000100	0.012962	0.080052	98.772000	89.830000	99.932000	98.010000	
234	0.000100	0.012295	0.079780	98.924000	89.890000	99.928000	97.940000	
235	0.000100	0.012694	0.079980	98.908000	89.880000	99.918000	98.090000	
236	0.000100	0.012759	0.080189	98.886000	89.790000	99.920000	97.910000	
237	0.000100	0.012717	0.080163	98.870000	89.820000	99.936000	98.000000	
238	0.000100	0.012317	0.079879	99.006000	89.840000	99.956000	97.990000	
239	0.000100	0.012406	0.080440	98.930000	89.780000	99.944000	97.990000	
240	0.000100	0.012312	0.079897	98.980000	89.980000	99.938000	98.020000	
241	0.000100	0.012389	0.080337	98.988000	89.910000	99.942000	97.980000	
242	0.000100	0.012029	0.080266	98.996000	89.920000	99.940000	97.910000	
243	0.000100	0.012234	0.079813	98.950000	89.930000	99.958000	98.000000	
244	0.000100	0.012060	0.080167	98.944000	89.890000	99.930000	97.980000	
245	0.000100	0.011925	0.079966	99.014000	90.060000	99.956000	97.990000	
246	0.000100	0.012445	0.079910	98.926000	89.930000	99.922000	97.940000	
247	0.000100	0.012161	0.080172	98.996000	89.990000	99.938000	97.960000	
248	0.000100	0.012191	0.080194	98.960000	89.850000	99.934000	97.950000	
249	0.000100	0.011995	0.079864	99.028000	90.180000	99.942000	97.920000	
250	0.000100	0.011920	0.080055	98.974000	89.940000	99.946000	97.980000	
251	0.000100	0.011988	0.080264	99.016000	90.140000	99.924000	97.990000	
252	0.000100	0.011691	0.080669	99.044000	89.870000	99.956000	98.040000	
253	0.000100	0.012340	0.079785	98.940000	89.940000	99.936000	97.990000	
254	0.000100	0.011837	0.079864	99.050000	89.890000	99.940000	97.930000	
255	0.000100	0.011759	0.079585	99.022000	90.070000	99.938000	98.040000	
256	0.000100	0.011583	0.079848	99.120000	90.010000	99.942000	98.080000	
257	0.000100	0.012048	0.080053	98.984000	89.960000	99.944000	97.960000	
258	0.000100	0.011744	0.079774	99.044000	89.880000	99.940000	97.950000	
259	0.000100	0.011998	0.079918	99.002000	90.000000	99.944000	97.920000	
260	0.000100	0.012167	0.079709	98.996000	90.020000	99.934000	98.020000	
261	0.000100	0.011827	0.079765	99.016000	89.940000	99.940000	98.030000	
262	0.000100	0.011582	0.079935	99.058000	89.850000	99.940000	97.920000	
263	0.000100	0.011547	0.079585	99.002000	89.970000	99.948000	98.010000	
264	0.000100	0.011867	0.079828	99.006000	89.850000	99.928000	97.950000	
265	0.000100	0.012000	0.079950	99.012000	89.950000	99.948000	97.970000	
266	0.000100	0.011744	0.079919	99.010000	89.910000	99.946000	97.970000	
267	0.000100	0.012081	0.080107	98.984000	89.910000	99.936000	98.030000	
268	0.000100	0.011878	0.079944	99.012000	89.980000	99.944000	98.060000	
269	0.000100	0.012132	0.080275	99.006000	89.990000	99.936000	97.950000	
270	0.000100	0.011847	0.080121	99.014000	89.830000	99.952000	97.980000	
271	0.000100	0.012078	0.080102	99.004000	89.900000	99.944000	97.970000	
272	0.000100	0.011879	0.080264	98.978000	89.900000	99.926000	97.910000	
273	0.000100	0.011929	0.079827	99.006000	90.040000	99.946000	97.990000	
274	0.000100	0.011458	0.080720	99.066000	89.950000	99.956000	97.900000	
275	0.000100	0.011736	0.080049	99.042000	90.040000	99.928000	97.930000	
276	0.000100	0.011536	0.080579	99.044000	89.910000	99.938000	97.870000	
277	0.000100	0.011644	0.079965	99.034000	89.980000	99.950000	97.870000	
278	0.000100	0.011698	0.079822	99.006000	90.010000	99.948000	98.000000	
279	0.000100	0.011492	0.080106	99.112000	90.010000	99.934000	97.930000	
280	0.000100	0.011672	0.080342	99.048000	89.970000	99.924000	97.870000	
281	0.000100	0.011467	0.080621	99.116000	89.900000	99.934000	97.850000	
282	0.000100	0.011636	0.079996	98.998000	89.990000	99.942000	97.920000	
283	0.000100	0.011526	0.079851	99.052000	89.820000	99.934000	97.940000	
284	0.000100	0.011523	0.080211	99.010000	90.000000	99.920000	97.800000	
285	0.000100	0.011492	0.080148	99.032000	90.010000	99.950000	97.900000	
286	0.000100	0.011280	0.080403	99.096000	89.900000	99.940000	97.860000	
287	0.000100	0.011536	0.080343	99.014000	89.920000	99.956000	97.880000	
288	0.000100	0.011335	0.080346	99.094000	89.940000	99.944000	97.970000	
289	0.000100	0.011123	0.080620	99.108000	89.960000	99.950000	97.900000	
290	0.000100	0.011596	0.080272	99.030000	90.020000	99.952000	97.900000	
291	0.000100	0.011253	0.080373	99.082000	89.960000	99.950000	97.890000	
292	0.000100	0.011589	0.080565	99.078000	89.880000	99.936000	97.950000	
293	0.000100	0.011279	0.080435	99.132000	89.880000	99.932000	97.940000	
294	0.000100	0.011449	0.080211	99.032000	89.840000	99.960000	97.980000	
295	0.000100	0.010985	0.080149	99.164000	90.070000	99.938000	98.050000	
296	0.000100	0.011132	0.080020	99.122000	90.060000	99.938000	97.900000	
297	0.000100	0.011082	0.080277	99.112000	89.830000	99.940000	97.870000	
298	0.000100	0.011479	0.080554	99.052000	89.960000	99.926000	97.880000	
299	0.000100	0.011217	0.080321	99.114000	89.850000	99.946000	97.910000	
