Epoch	Learning Rate	Train Loss	Test Loss	Train Acc.	Test Acc.	Train Acc5.	Test Acc5.	
0	0.010000	0.825070	n/a	12.318000	n/a	60.088000	n/a	
1	0.010000	0.527792	n/a	27.680000	n/a	77.880000	n/a	
2	0.010000	0.473316	n/a	36.336000	n/a	83.004000	n/a	
3	0.010000	0.435919	n/a	43.020000	n/a	85.834000	n/a	
4	0.010000	0.403170	n/a	46.678000	n/a	87.854000	n/a	
5	0.010000	0.386934	n/a	49.652000	n/a	88.494000	n/a	
6	0.010000	0.355598	n/a	53.874000	n/a	90.594000	n/a	
7	0.010000	0.335675	n/a	55.928000	n/a	91.000000	n/a	
8	0.010000	0.313343	n/a	58.808000	n/a	91.918000	n/a	
9	0.010000	0.298296	n/a	60.994000	n/a	92.590000	n/a	
10	0.010000	0.278780	n/a	63.154000	n/a	93.322000	n/a	
11	0.010000	0.260302	n/a	65.348000	n/a	94.008000	n/a	
12	0.010000	0.244433	n/a	67.136000	n/a	94.382000	n/a	
13	0.010000	0.229201	n/a	68.842000	n/a	94.648000	n/a	
14	0.010000	0.220429	n/a	70.330000	n/a	95.064000	n/a	
15	0.010000	0.211733	n/a	71.602000	n/a	95.356000	n/a	
16	0.010000	0.199948	n/a	73.132000	n/a	95.638000	n/a	
17	0.010000	0.192467	n/a	74.154000	n/a	96.014000	n/a	
18	0.010000	0.188689	n/a	74.790000	n/a	96.104000	n/a	
19	0.010000	0.181454	n/a	75.858000	n/a	96.302000	n/a	
20	0.010000	0.176405	n/a	76.832000	n/a	96.300000	n/a	
21	0.010000	0.170141	n/a	77.440000	n/a	96.784000	n/a	
22	0.010000	0.164917	n/a	78.242000	n/a	96.642000	n/a	
23	0.010000	0.164792	n/a	78.240000	n/a	96.646000	n/a	
24	0.010000	0.156784	n/a	79.080000	n/a	96.952000	n/a	
25	0.010000	0.150150	n/a	80.116000	n/a	97.146000	n/a	
26	0.010000	0.147440	n/a	80.496000	n/a	97.164000	n/a	
27	0.010000	0.144441	n/a	80.906000	n/a	97.462000	n/a	
28	0.010000	0.141462	n/a	81.292000	n/a	97.444000	n/a	
29	0.010000	0.140712	n/a	81.540000	n/a	97.344000	n/a	
30	0.010000	0.134771	n/a	82.284000	n/a	97.538000	n/a	
31	0.010000	0.133563	n/a	82.592000	n/a	97.366000	n/a	
32	0.010000	0.130727	n/a	82.732000	n/a	97.618000	n/a	
33	0.010000	0.126605	n/a	83.344000	n/a	97.686000	n/a	
34	0.010000	0.124819	n/a	83.528000	n/a	97.738000	n/a	
35	0.010000	0.125875	n/a	83.656000	n/a	97.736000	n/a	
36	0.010000	0.120759	n/a	84.186000	n/a	97.806000	n/a	
37	0.010000	0.116635	n/a	84.676000	n/a	98.000000	n/a	
38	0.010000	0.115196	n/a	84.956000	n/a	97.908000	n/a	
39	0.010000	0.113252	n/a	85.040000	n/a	98.006000	n/a	
40	0.010000	0.112507	n/a	85.318000	n/a	98.016000	n/a	
41	0.010000	0.108470	n/a	85.788000	n/a	98.182000	n/a	
42	0.010000	0.107560	n/a	85.898000	n/a	98.188000	n/a	
43	0.010000	0.108603	n/a	85.888000	n/a	98.038000	n/a	
44	0.010000	0.106198	n/a	86.152000	n/a	98.094000	n/a	
45	0.010000	0.104876	n/a	86.370000	n/a	98.162000	n/a	
46	0.010000	0.102469	n/a	86.536000	n/a	98.278000	n/a	
47	0.010000	0.100821	n/a	86.868000	n/a	98.254000	n/a	
48	0.010000	0.100127	n/a	87.150000	n/a	98.076000	n/a	
49	0.010000	0.098726	n/a	87.210000	n/a	98.294000	n/a	
50	0.010000	0.096039	n/a	87.500000	n/a	98.400000	n/a	
51	0.010000	0.093997	n/a	87.692000	n/a	98.452000	n/a	
52	0.010000	0.093289	n/a	87.990000	n/a	98.452000	n/a	
53	0.010000	0.094147	n/a	87.766000	n/a	98.424000	n/a	
54	0.010000	0.093023	n/a	87.840000	n/a	98.500000	n/a	
55	0.010000	0.089027	n/a	88.414000	n/a	98.498000	n/a	
56	0.010000	0.088083	n/a	88.730000	n/a	98.498000	n/a	
57	0.010000	0.087662	n/a	88.666000	n/a	98.478000	n/a	
58	0.010000	0.089307	n/a	88.428000	n/a	98.504000	n/a	
59	0.010000	0.086425	n/a	88.678000	n/a	98.568000	n/a	
60	0.010000	0.085679	n/a	89.010000	n/a	98.524000	n/a	
61	0.010000	0.084695	n/a	89.110000	n/a	98.506000	n/a	
62	0.010000	0.084547	n/a	88.920000	n/a	98.610000	n/a	
63	0.010000	0.081549	n/a	89.536000	n/a	98.656000	n/a	
64	0.010000	0.080796	n/a	89.628000	n/a	98.634000	n/a	
65	0.010000	0.081492	n/a	89.484000	n/a	98.684000	n/a	
66	0.010000	0.079125	n/a	89.824000	n/a	98.780000	n/a	
67	0.010000	0.080339	n/a	89.568000	n/a	98.686000	n/a	
68	0.010000	0.077376	n/a	89.988000	n/a	98.780000	n/a	
69	0.010000	0.077857	n/a	90.014000	n/a	98.672000	n/a	
70	0.010000	0.075706	n/a	90.392000	n/a	98.772000	n/a	
71	0.010000	0.075263	n/a	90.214000	n/a	98.914000	n/a	
72	0.010000	0.075345	n/a	90.282000	n/a	98.806000	n/a	
73	0.010000	0.074215	n/a	90.448000	n/a	98.838000	n/a	
74	0.010000	0.074721	n/a	90.364000	n/a	98.810000	n/a	
75	0.010000	0.074677	n/a	90.398000	n/a	98.770000	n/a	
76	0.010000	0.074019	n/a	90.436000	n/a	98.834000	n/a	
77	0.010000	0.070935	n/a	90.934000	n/a	98.916000	n/a	
78	0.010000	0.071652	n/a	90.826000	n/a	98.792000	n/a	
79	0.010000	0.070976	n/a	90.838000	n/a	98.884000	n/a	
80	0.010000	0.071078	n/a	90.868000	n/a	98.890000	n/a	
81	0.010000	0.071791	n/a	90.678000	n/a	98.908000	n/a	
82	0.010000	0.068502	n/a	91.102000	n/a	99.002000	n/a	
83	0.010000	0.069166	n/a	91.078000	n/a	99.008000	n/a	
84	0.010000	0.067123	n/a	91.190000	n/a	98.964000	n/a	
85	0.010000	0.069312	n/a	91.196000	n/a	99.014000	n/a	
86	0.010000	0.068304	n/a	91.038000	n/a	98.958000	n/a	
87	0.010000	0.067289	n/a	91.252000	n/a	98.908000	n/a	
88	0.010000	0.067331	n/a	91.240000	n/a	98.902000	n/a	
89	0.010000	0.066797	n/a	91.318000	n/a	99.028000	n/a	
90	0.010000	0.066075	n/a	91.520000	n/a	99.080000	n/a	
91	0.010000	0.065410	n/a	91.524000	n/a	99.080000	n/a	
92	0.010000	0.066690	n/a	91.548000	n/a	98.894000	n/a	
93	0.010000	0.065654	n/a	91.580000	n/a	98.984000	n/a	
94	0.010000	0.064376	n/a	91.608000	n/a	99.080000	n/a	
95	0.010000	0.066124	n/a	91.534000	n/a	99.026000	n/a	
96	0.010000	0.064756	n/a	91.736000	n/a	99.012000	n/a	
97	0.010000	0.064281	n/a	91.630000	n/a	98.972000	n/a	
98	0.010000	0.062661	n/a	91.890000	n/a	99.016000	n/a	
99	0.010000	0.063807	n/a	91.736000	n/a	98.946000	n/a	
100	0.010000	0.061824	n/a	92.052000	n/a	99.040000	n/a	
101	0.010000	0.062132	n/a	92.036000	n/a	99.108000	n/a	
102	0.010000	0.063820	n/a	91.808000	n/a	98.978000	n/a	
103	0.010000	0.060348	n/a	92.148000	n/a	99.132000	n/a	
104	0.010000	0.059568	n/a	92.390000	n/a	99.140000	n/a	
105	0.010000	0.061134	n/a	92.012000	n/a	99.134000	n/a	
106	0.010000	0.059817	n/a	92.204000	n/a	99.128000	n/a	
107	0.010000	0.060108	n/a	92.308000	n/a	99.150000	n/a	
108	0.010000	0.061053	n/a	92.288000	n/a	99.082000	n/a	
109	0.010000	0.059848	n/a	92.354000	n/a	99.158000	n/a	
110	0.010000	0.060179	n/a	92.212000	n/a	99.120000	n/a	
111	0.010000	0.058232	n/a	92.468000	n/a	99.152000	n/a	
112	0.010000	0.059137	n/a	92.378000	n/a	99.114000	n/a	
113	0.010000	0.059626	n/a	92.420000	n/a	99.108000	n/a	
114	0.010000	0.059616	n/a	92.452000	n/a	99.130000	n/a	
115	0.010000	0.057324	n/a	92.664000	n/a	99.176000	n/a	
116	0.010000	0.060258	n/a	92.070000	n/a	99.166000	n/a	
117	0.010000	0.059432	n/a	92.438000	n/a	99.180000	n/a	
118	0.010000	0.057108	n/a	92.700000	n/a	99.180000	n/a	
119	0.010000	0.055512	n/a	92.972000	n/a	99.188000	n/a	
120	0.010000	0.058314	n/a	92.548000	n/a	99.184000	n/a	
121	0.010000	0.057633	n/a	92.696000	n/a	99.200000	n/a	
122	0.010000	0.056565	n/a	92.738000	n/a	99.268000	n/a	
123	0.010000	0.056588	n/a	92.808000	n/a	99.186000	n/a	
124	0.010000	0.056548	n/a	92.744000	n/a	99.236000	n/a	
125	0.010000	0.055074	n/a	92.870000	n/a	99.270000	n/a	
126	0.010000	0.054191	n/a	93.008000	n/a	99.274000	n/a	
127	0.010000	0.056881	n/a	92.602000	n/a	99.158000	n/a	
128	0.010000	0.055125	n/a	92.942000	n/a	99.196000	n/a	
129	0.010000	0.056337	n/a	92.802000	n/a	99.154000	n/a	
130	0.010000	0.054688	n/a	93.034000	n/a	99.200000	n/a	
131	0.010000	0.055128	n/a	92.936000	n/a	99.298000	n/a	
132	0.010000	0.055881	n/a	92.984000	n/a	99.170000	n/a	
133	0.010000	0.053536	n/a	93.170000	n/a	99.176000	n/a	
134	0.010000	0.053521	n/a	93.108000	n/a	99.302000	n/a	
135	0.010000	0.054285	n/a	92.976000	n/a	99.278000	n/a	
136	0.010000	0.054324	n/a	93.052000	n/a	99.248000	n/a	
137	0.010000	0.054350	n/a	93.100000	n/a	99.150000	n/a	
138	0.010000	0.054101	n/a	92.982000	n/a	99.240000	n/a	
139	0.010000	0.053500	n/a	93.140000	n/a	99.278000	n/a	
140	0.010000	0.054164	0.093138	93.016000	88.150000	99.338000	98.030000	
141	0.010000	0.053012	0.091891	93.280000	87.980000	99.342000	98.930000	
142	0.010000	0.052321	0.099929	93.394000	87.150000	99.260000	97.570000	
143	0.010000	0.054340	0.112439	93.036000	86.010000	99.144000	96.660000	
144	0.010000	0.053757	0.096922	93.094000	88.180000	99.290000	97.540000	
145	0.010000	0.054059	0.101451	93.132000	87.520000	99.240000	97.070000	
146	0.010000	0.052346	0.114706	93.250000	85.960000	99.326000	96.670000	
147	0.010000	0.054737	0.107905	93.014000	86.400000	99.252000	97.320000	
148	0.010000	0.052397	0.095394	93.264000	87.950000	99.302000	97.950000	
149	0.010000	0.051671	0.116585	93.466000	84.970000	99.284000	98.270000	
150	0.001000	0.031911	0.069434	95.794000	90.730000	99.756000	98.850000	
151	0.001000	0.025500	0.067793	96.830000	91.220000	99.742000	98.570000	
152	0.001000	0.023587	0.067555	97.082000	91.140000	99.808000	98.540000	
153	0.001000	0.021418	0.067413	97.366000	91.300000	99.804000	98.480000	
154	0.001000	0.020273	0.067309	97.512000	91.200000	99.780000	98.670000	
155	0.001000	0.020026	0.067377	97.622000	91.210000	99.842000	98.550000	
156	0.001000	0.019256	0.067330	97.688000	91.290000	99.806000	98.310000	
157	0.001000	0.018533	0.067625	97.758000	91.220000	99.810000	98.660000	
158	0.001000	0.018228	0.066047	97.854000	91.450000	99.812000	98.590000	
159	0.001000	0.017496	0.067885	97.906000	91.280000	99.866000	98.470000	
160	0.001000	0.016822	0.068621	98.038000	91.190000	99.836000	98.520000	
161	0.001000	0.016687	0.068066	98.088000	91.270000	99.836000	98.460000	
162	0.001000	0.015820	0.067103	98.118000	91.500000	99.862000	98.180000	
163	0.001000	0.015468	0.067904	98.196000	91.430000	99.868000	98.440000	
164	0.001000	0.015556	0.067054	98.228000	91.510000	99.872000	98.230000	
165	0.001000	0.014692	0.068446	98.308000	91.290000	99.842000	98.510000	
166	0.001000	0.014224	0.067185	98.398000	91.520000	99.874000	98.190000	
167	0.001000	0.014532	0.067714	98.330000	91.510000	99.856000	98.320000	
168	0.001000	0.013392	0.067246	98.494000	91.540000	99.872000	98.400000	
169	0.001000	0.013627	0.067708	98.484000	91.580000	99.850000	98.530000	
170	0.001000	0.013993	0.068521	98.456000	91.400000	99.842000	98.160000	
171	0.001000	0.013504	0.067924	98.430000	91.510000	99.862000	98.650000	
172	0.001000	0.013093	0.068624	98.544000	91.440000	99.866000	98.330000	
173	0.001000	0.012820	0.068183	98.594000	91.600000	99.850000	98.280000	
174	0.001000	0.012771	0.067433	98.562000	91.710000	99.880000	98.550000	
175	0.001000	0.012194	0.068802	98.672000	91.570000	99.860000	98.140000	
176	0.001000	0.012281	0.069241	98.604000	91.360000	99.884000	98.250000	
177	0.001000	0.011882	0.069117	98.682000	91.420000	99.890000	98.250000	
178	0.001000	0.012112	0.069055	98.634000	91.440000	99.896000	98.190000	
179	0.001000	0.012156	0.069107	98.676000	91.210000	99.874000	98.250000	
180	0.001000	0.011440	0.069787	98.738000	91.460000	99.906000	98.150000	
181	0.001000	0.011492	0.069837	98.766000	91.650000	99.896000	97.940000	
182	0.001000	0.011371	0.070548	98.764000	91.370000	99.882000	98.030000	
183	0.001000	0.011072	0.069303	98.778000	91.560000	99.904000	98.160000	
184	0.001000	0.010669	0.069497	98.874000	91.480000	99.900000	98.180000	
185	0.001000	0.010498	0.071081	98.864000	91.330000	99.908000	98.110000	
186	0.001000	0.010686	0.069716	98.848000	91.410000	99.898000	98.230000	
187	0.001000	0.010544	0.070500	98.878000	91.500000	99.898000	98.030000	
188	0.001000	0.010319	0.071078	98.902000	91.270000	99.910000	97.960000	
189	0.001000	0.010572	0.070220	98.864000	91.470000	99.882000	98.160000	
190	0.001000	0.009933	0.071429	98.954000	91.250000	99.922000	97.960000	
191	0.001000	0.010373	0.070510	98.840000	91.670000	99.922000	97.820000	
192	0.001000	0.010118	0.070829	98.904000	91.380000	99.908000	98.120000	
193	0.001000	0.010036	0.070791	98.894000	91.410000	99.904000	98.060000	
194	0.001000	0.009812	0.070548	98.896000	91.380000	99.934000	97.940000	
195	0.001000	0.009572	0.071306	98.956000	91.290000	99.912000	97.890000	
196	0.001000	0.009313	0.071863	98.974000	91.320000	99.930000	97.910000	
197	0.001000	0.009238	0.072094	99.054000	91.530000	99.924000	97.950000	
198	0.001000	0.008729	0.070914	99.096000	91.490000	99.916000	97.920000	
199	0.001000	0.009007	0.071873	99.004000	91.420000	99.932000	98.090000	
200	0.001000	0.009065	0.071493	99.028000	91.490000	99.930000	97.880000	
201	0.001000	0.009080	0.069972	99.040000	91.520000	99.920000	98.120000	
202	0.001000	0.009242	0.070802	98.970000	91.340000	99.908000	97.980000	
203	0.001000	0.008753	0.071895	99.046000	91.320000	99.924000	97.870000	
204	0.001000	0.008953	0.071889	99.022000	91.430000	99.912000	98.130000	
205	0.001000	0.008569	0.072071	99.070000	91.400000	99.948000	97.790000	
206	0.001000	0.008431	0.071456	99.138000	91.340000	99.924000	98.030000	
207	0.001000	0.008237	0.071673	99.126000	91.420000	99.930000	97.830000	
208	0.001000	0.008302	0.071395	99.116000	91.410000	99.898000	97.950000	
209	0.001000	0.008203	0.071067	99.174000	91.330000	99.932000	98.260000	
210	0.001000	0.008106	0.070942	99.156000	91.420000	99.924000	97.850000	
211	0.001000	0.007950	0.071081	99.158000	91.370000	99.944000	98.070000	
212	0.001000	0.008014	0.071651	99.166000	91.420000	99.926000	97.980000	
213	0.001000	0.007919	0.072551	99.146000	91.320000	99.942000	98.050000	
214	0.001000	0.007817	0.070514	99.176000	91.630000	99.928000	98.000000	
215	0.001000	0.007581	0.071330	99.214000	91.420000	99.944000	97.890000	
216	0.001000	0.007844	0.072527	99.168000	91.360000	99.922000	97.940000	
217	0.001000	0.007826	0.071465	99.186000	91.500000	99.934000	97.910000	
218	0.001000	0.007496	0.072894	99.256000	91.120000	99.938000	97.940000	
219	0.001000	0.007709	0.073756	99.196000	91.310000	99.940000	97.980000	
220	0.001000	0.007836	0.073157	99.152000	91.160000	99.946000	97.880000	
221	0.001000	0.007745	0.072523	99.186000	91.280000	99.936000	97.950000	
222	0.001000	0.007298	0.071956	99.282000	91.310000	99.936000	97.640000	
223	0.001000	0.007466	0.071894	99.194000	91.450000	99.944000	97.750000	
224	0.001000	0.007132	0.071904	99.284000	91.460000	99.934000	97.790000	
225	0.000100	0.006773	0.071394	99.292000	91.570000	99.956000	97.790000	
226	0.000100	0.006175	0.071012	99.406000	91.690000	99.946000	97.770000	
227	0.000100	0.006395	0.071273	99.342000	91.610000	99.958000	97.690000	
228	0.000100	0.006020	0.070969	99.412000	91.590000	99.956000	97.750000	
229	0.000100	0.006121	0.071200	99.400000	91.670000	99.938000	97.800000	
230	0.000100	0.005970	0.070952	99.406000	91.600000	99.950000	97.870000	
231	0.000100	0.005705	0.070993	99.462000	91.500000	99.950000	97.640000	
232	0.000100	0.006126	0.070835	99.400000	91.590000	99.952000	97.800000	
233	0.000100	0.005676	0.070647	99.460000	91.640000	99.942000	97.710000	
234	0.000100	0.005988	0.071407	99.406000	91.500000	99.944000	97.780000	
235	0.000100	0.005966	0.071048	99.430000	91.490000	99.948000	97.790000	
236	0.000100	0.005811	0.071346	99.458000	91.650000	99.948000	97.770000	
237	0.000100	0.005483	0.071028	99.524000	91.670000	99.968000	97.740000	
238	0.000100	0.005830	0.070824	99.450000	91.630000	99.954000	97.750000	
239	0.000100	0.005387	0.070967	99.520000	91.750000	99.958000	97.780000	
240	0.000100	0.005844	0.070834	99.422000	91.540000	99.952000	97.660000	
241	0.000100	0.005615	0.070619	99.454000	91.620000	99.958000	97.780000	
242	0.000100	0.005491	0.070857	99.498000	91.660000	99.956000	97.710000	
243	0.000100	0.005785	0.071347	99.456000	91.550000	99.940000	97.780000	
244	0.000100	0.005623	0.070551	99.490000	91.580000	99.952000	97.790000	
245	0.000100	0.005638	0.070714	99.472000	91.610000	99.954000	97.720000	
246	0.000100	0.005657	0.070819	99.468000	91.690000	99.954000	97.690000	
247	0.000100	0.005596	0.070579	99.466000	91.700000	99.954000	97.820000	
248	0.000100	0.005346	0.070870	99.528000	91.710000	99.958000	97.790000	
249	0.000100	0.005432	0.070575	99.486000	91.730000	99.962000	97.740000	
250	0.000100	0.005261	0.070875	99.496000	91.680000	99.956000	97.760000	
251	0.000100	0.005792	0.071302	99.452000	91.660000	99.952000	97.860000	
252	0.000100	0.005464	0.071026	99.510000	91.620000	99.938000	97.870000	
253	0.000100	0.005362	0.070961	99.506000	91.550000	99.958000	97.740000	
254	0.000100	0.005441	0.071315	99.480000	91.620000	99.950000	97.770000	
255	0.000100	0.005402	0.070751	99.512000	91.720000	99.940000	97.770000	
256	0.000100	0.005519	0.071259	99.492000	91.640000	99.950000	97.730000	
257	0.000100	0.005441	0.070972	99.516000	91.580000	99.948000	97.690000	
258	0.000100	0.005310	0.070578	99.520000	91.570000	99.952000	97.590000	
259	0.000100	0.005551	0.071203	99.508000	91.660000	99.952000	97.710000	
260	0.000100	0.005526	0.070594	99.476000	91.620000	99.958000	97.700000	
261	0.000100	0.005386	0.070968	99.524000	91.570000	99.944000	97.750000	
262	0.000100	0.005272	0.071244	99.504000	91.610000	99.954000	97.730000	
263	0.000100	0.005190	0.071221	99.538000	91.490000	99.952000	97.650000	
264	0.000100	0.005416	0.071312	99.476000	91.580000	99.954000	97.700000	
265	0.000100	0.005172	0.071097	99.536000	91.560000	99.958000	97.610000	
266	0.000100	0.005272	0.071162	99.500000	91.510000	99.952000	97.680000	
267	0.000100	0.005299	0.071101	99.520000	91.650000	99.952000	97.590000	
268	0.000100	0.005536	0.071047	99.468000	91.550000	99.940000	97.750000	
269	0.000100	0.005456	0.071254	99.480000	91.460000	99.960000	97.670000	
270	0.000100	0.005507	0.070649	99.496000	91.590000	99.944000	97.690000	
271	0.000100	0.005034	0.070562	99.554000	91.720000	99.956000	97.680000	
272	0.000100	0.005300	0.070873	99.502000	91.720000	99.956000	97.600000	
273	0.000100	0.005382	0.070750	99.494000	91.680000	99.962000	97.730000	
274	0.000100	0.005313	0.071083	99.494000	91.620000	99.960000	97.630000	
275	0.000100	0.005377	0.071340	99.452000	91.660000	99.968000	97.610000	
276	0.000100	0.005052	0.071340	99.516000	91.560000	99.956000	97.630000	
277	0.000100	0.005046	0.070821	99.518000	91.740000	99.962000	97.760000	
278	0.000100	0.005069	0.070434	99.542000	91.640000	99.962000	97.770000	
279	0.000100	0.005032	0.071042	99.494000	91.560000	99.952000	97.730000	
280	0.000100	0.005144	0.071312	99.528000	91.520000	99.952000	97.660000	
281	0.000100	0.005451	0.071113	99.474000	91.580000	99.952000	97.710000	
282	0.000100	0.005289	0.071026	99.480000	91.570000	99.958000	97.740000	
283	0.000100	0.005109	0.071059	99.516000	91.640000	99.964000	97.780000	
284	0.000100	0.005331	0.071005	99.498000	91.640000	99.936000	97.660000	
285	0.000100	0.005139	0.070932	99.498000	91.640000	99.954000	97.710000	
286	0.000100	0.005105	0.071067	99.516000	91.580000	99.942000	97.700000	
287	0.000100	0.004844	0.071112	99.570000	91.460000	99.962000	97.760000	
288	0.000100	0.005158	0.071070	99.520000	91.650000	99.960000	97.690000	
289	0.000100	0.004960	0.071556	99.562000	91.420000	99.948000	97.710000	
290	0.000100	0.004916	0.071388	99.556000	91.490000	99.966000	97.780000	
291	0.000100	0.005032	0.071163	99.532000	91.540000	99.958000	97.810000	
292	0.000100	0.005065	0.071628	99.554000	91.500000	99.952000	97.690000	
293	0.000100	0.005151	0.071023	99.534000	91.560000	99.964000	97.650000	
294	0.000100	0.005200	0.071206	99.522000	91.540000	99.946000	97.600000	
295	0.000100	0.004942	0.071451	99.550000	91.510000	99.950000	97.760000	
296	0.000100	0.004942	0.071532	99.534000	91.540000	99.960000	97.740000	
297	0.000100	0.005235	0.071183	99.520000	91.570000	99.954000	97.590000	
298	0.000100	0.005042	0.071283	99.534000	91.520000	99.958000	97.630000	
299	0.000100	0.005188	0.071309	99.554000	91.450000	99.938000	97.640000	
