Epoch	Learning Rate	Train Loss	Test Loss	Train Acc.	Test Acc.	Train Acc5.	Test Acc5.	
0	0.010000	2.261089	n/a	12.330000	n/a	57.234000	n/a	
1	0.010000	2.068280	n/a	18.988000	n/a	82.478000	n/a	
2	0.010000	2.040913	n/a	20.260000	n/a	85.112000	n/a	
3	0.010000	2.005413	n/a	27.084000	n/a	86.614000	n/a	
4	0.010000	1.978146	n/a	29.424000	n/a	88.004000	n/a	
5	0.010000	1.961203	n/a	31.322000	n/a	88.906000	n/a	
6	0.010000	1.945960	n/a	32.540000	n/a	89.640000	n/a	
7	0.010000	1.924157	n/a	34.718000	n/a	90.550000	n/a	
8	0.010000	1.895353	n/a	36.634000	n/a	91.538000	n/a	
9	0.010000	1.873292	n/a	39.366000	n/a	92.260000	n/a	
10	0.010000	1.851475	n/a	41.804000	n/a	92.836000	n/a	
11	0.010000	1.831440	n/a	45.168000	n/a	93.298000	n/a	
12	0.010000	1.819416	n/a	46.948000	n/a	93.528000	n/a	
13	0.010000	1.806143	n/a	47.958000	n/a	93.854000	n/a	
14	0.010000	1.796522	n/a	49.732000	n/a	93.980000	n/a	
15	0.010000	1.784356	n/a	51.476000	n/a	94.410000	n/a	
16	0.010000	1.774211	n/a	52.648000	n/a	94.686000	n/a	
17	0.010000	1.764115	n/a	54.406000	n/a	94.870000	n/a	
18	0.010000	1.757426	n/a	55.074000	n/a	94.978000	n/a	
19	0.010000	1.747251	n/a	56.238000	n/a	95.190000	n/a	
20	0.010000	1.741473	n/a	56.702000	n/a	95.348000	n/a	
21	0.010000	1.732602	n/a	58.014000	n/a	95.566000	n/a	
22	0.010000	1.728884	n/a	58.460000	n/a	95.798000	n/a	
23	0.010000	1.722504	n/a	59.408000	n/a	95.886000	n/a	
24	0.010000	1.714421	n/a	60.078000	n/a	95.894000	n/a	
25	0.010000	1.708981	n/a	60.378000	n/a	96.148000	n/a	
26	0.010000	1.704239	n/a	61.496000	n/a	96.200000	n/a	
27	0.010000	1.699732	n/a	62.018000	n/a	96.186000	n/a	
28	0.010000	1.695130	n/a	62.728000	n/a	96.322000	n/a	
29	0.010000	1.688913	n/a	63.848000	n/a	96.530000	n/a	
30	0.010000	1.687661	n/a	64.608000	n/a	96.320000	n/a	
31	0.010000	1.681959	n/a	65.868000	n/a	96.792000	n/a	
32	0.010000	1.678148	n/a	67.230000	n/a	96.692000	n/a	
33	0.010000	1.674684	n/a	68.546000	n/a	96.622000	n/a	
34	0.010000	1.669212	n/a	70.214000	n/a	96.776000	n/a	
35	0.010000	1.661862	n/a	72.368000	n/a	96.958000	n/a	
36	0.010000	1.656549	n/a	72.982000	n/a	96.780000	n/a	
37	0.010000	1.653221	n/a	73.600000	n/a	96.952000	n/a	
38	0.010000	1.650767	n/a	74.276000	n/a	96.884000	n/a	
39	0.010000	1.645442	n/a	74.756000	n/a	97.146000	n/a	
40	0.010000	1.643172	n/a	75.082000	n/a	97.094000	n/a	
41	0.010000	1.641342	n/a	75.650000	n/a	97.190000	n/a	
42	0.010000	1.637292	n/a	76.168000	n/a	97.132000	n/a	
43	0.010000	1.633680	n/a	76.460000	n/a	97.322000	n/a	
44	0.010000	1.630147	n/a	76.954000	n/a	97.318000	n/a	
45	0.010000	1.625931	n/a	77.534000	n/a	97.386000	n/a	
46	0.010000	1.626585	n/a	77.506000	n/a	97.496000	n/a	
47	0.010000	1.623424	n/a	78.102000	n/a	97.178000	n/a	
48	0.010000	1.620495	n/a	78.260000	n/a	97.454000	n/a	
49	0.010000	1.620482	n/a	78.688000	n/a	97.416000	n/a	
50	0.010000	1.615937	n/a	78.932000	n/a	97.526000	n/a	
51	0.010000	1.616335	n/a	79.072000	n/a	97.406000	n/a	
52	0.010000	1.613200	n/a	79.618000	n/a	97.534000	n/a	
53	0.010000	1.608566	n/a	80.028000	n/a	97.602000	n/a	
54	0.010000	1.607989	n/a	80.242000	n/a	97.538000	n/a	
55	0.010000	1.606649	n/a	80.382000	n/a	97.730000	n/a	
56	0.010000	1.604678	n/a	80.688000	n/a	97.496000	n/a	
57	0.010000	1.603213	n/a	80.898000	n/a	97.636000	n/a	
58	0.010000	1.602247	n/a	81.086000	n/a	97.628000	n/a	
59	0.010000	1.600124	n/a	81.368000	n/a	97.806000	n/a	
60	0.010000	1.599140	n/a	81.474000	n/a	97.670000	n/a	
61	0.010000	1.597476	n/a	81.588000	n/a	97.798000	n/a	
62	0.010000	1.599003	n/a	81.784000	n/a	97.716000	n/a	
63	0.010000	1.594862	n/a	81.958000	n/a	97.900000	n/a	
64	0.010000	1.593872	n/a	82.318000	n/a	97.772000	n/a	
65	0.010000	1.589429	n/a	82.648000	n/a	97.882000	n/a	
66	0.010000	1.592737	n/a	82.428000	n/a	97.978000	n/a	
67	0.010000	1.588808	n/a	82.950000	n/a	97.958000	n/a	
68	0.010000	1.588184	n/a	82.830000	n/a	97.956000	n/a	
69	0.010000	1.587230	n/a	82.962000	n/a	97.918000	n/a	
70	0.010000	1.586564	n/a	83.282000	n/a	98.002000	n/a	
71	0.010000	1.583062	n/a	83.454000	n/a	97.990000	n/a	
72	0.010000	1.585175	n/a	83.448000	n/a	98.032000	n/a	
73	0.010000	1.582994	n/a	83.692000	n/a	97.962000	n/a	
74	0.010000	1.582688	n/a	83.788000	n/a	98.024000	n/a	
75	0.010000	1.581848	n/a	83.550000	n/a	98.088000	n/a	
76	0.010000	1.577386	n/a	84.174000	n/a	98.078000	n/a	
77	0.010000	1.579651	n/a	84.266000	n/a	97.998000	n/a	
78	0.010000	1.579806	n/a	84.022000	n/a	98.008000	n/a	
79	0.010000	1.576421	n/a	84.610000	n/a	98.136000	n/a	
80	0.010000	1.575277	n/a	84.620000	n/a	98.094000	n/a	
81	0.010000	1.575833	n/a	84.694000	n/a	98.074000	n/a	
82	0.010000	1.574664	n/a	84.694000	n/a	98.096000	n/a	
83	0.010000	1.576130	n/a	84.456000	n/a	98.128000	n/a	
84	0.010000	1.574198	n/a	84.558000	n/a	98.132000	n/a	
85	0.010000	1.571986	n/a	85.076000	n/a	98.172000	n/a	
86	0.010000	1.572956	n/a	85.086000	n/a	98.066000	n/a	
87	0.010000	1.572188	n/a	84.990000	n/a	98.140000	n/a	
88	0.010000	1.570390	n/a	85.144000	n/a	98.184000	n/a	
89	0.010000	1.571185	n/a	85.172000	n/a	98.156000	n/a	
90	0.010000	1.571200	n/a	85.154000	n/a	98.242000	n/a	
91	0.010000	1.570372	n/a	85.316000	n/a	98.224000	n/a	
92	0.010000	1.568528	n/a	85.574000	n/a	98.218000	n/a	
93	0.010000	1.568350	n/a	85.728000	n/a	98.126000	n/a	
94	0.010000	1.567931	n/a	85.708000	n/a	98.354000	n/a	
95	0.010000	1.566598	n/a	85.788000	n/a	98.220000	n/a	
96	0.010000	1.565301	n/a	85.872000	n/a	98.232000	n/a	
97	0.010000	1.565227	n/a	86.220000	n/a	98.438000	n/a	
98	0.010000	1.564910	n/a	85.998000	n/a	98.284000	n/a	
99	0.010000	1.564206	n/a	86.136000	n/a	98.444000	n/a	
100	0.010000	1.563023	n/a	86.308000	n/a	98.278000	n/a	
101	0.010000	1.562441	n/a	86.168000	n/a	98.298000	n/a	
102	0.010000	1.565554	n/a	86.154000	n/a	98.160000	n/a	
103	0.010000	1.565331	n/a	86.130000	n/a	98.352000	n/a	
104	0.010000	1.561961	n/a	86.330000	n/a	98.324000	n/a	
105	0.010000	1.563874	n/a	86.274000	n/a	98.264000	n/a	
106	0.010000	1.561209	n/a	86.430000	n/a	98.452000	n/a	
107	0.010000	1.562724	n/a	86.550000	n/a	98.306000	n/a	
108	0.010000	1.560857	n/a	86.634000	n/a	98.410000	n/a	
109	0.010000	1.559438	n/a	86.722000	n/a	98.362000	n/a	
110	0.010000	1.558755	n/a	86.940000	n/a	98.390000	n/a	
111	0.010000	1.560561	n/a	86.732000	n/a	98.444000	n/a	
112	0.010000	1.558549	n/a	86.862000	n/a	98.416000	n/a	
113	0.010000	1.558100	n/a	86.890000	n/a	98.340000	n/a	
114	0.010000	1.559886	n/a	86.694000	n/a	98.500000	n/a	
115	0.010000	1.557881	n/a	86.934000	n/a	98.494000	n/a	
116	0.010000	1.558112	n/a	87.032000	n/a	98.380000	n/a	
117	0.010000	1.557181	n/a	87.118000	n/a	98.386000	n/a	
118	0.010000	1.556648	n/a	86.930000	n/a	98.418000	n/a	
119	0.010000	1.554272	n/a	87.492000	n/a	98.430000	n/a	
120	0.010000	1.556577	n/a	87.194000	n/a	98.404000	n/a	
121	0.010000	1.555440	n/a	87.490000	n/a	98.486000	n/a	
122	0.010000	1.557570	n/a	86.894000	n/a	98.518000	n/a	
123	0.010000	1.554816	n/a	87.392000	n/a	98.420000	n/a	
124	0.010000	1.556157	n/a	87.266000	n/a	98.454000	n/a	
125	0.010000	1.555162	n/a	87.176000	n/a	98.444000	n/a	
126	0.010000	1.553759	n/a	87.622000	n/a	98.410000	n/a	
127	0.010000	1.553451	n/a	87.340000	n/a	98.498000	n/a	
128	0.010000	1.551850	n/a	87.738000	n/a	98.554000	n/a	
129	0.010000	1.554822	n/a	87.466000	n/a	98.468000	n/a	
130	0.010000	1.551841	n/a	87.808000	n/a	98.550000	n/a	
131	0.010000	1.552506	n/a	87.910000	n/a	98.528000	n/a	
132	0.010000	1.551471	n/a	87.786000	n/a	98.578000	n/a	
133	0.010000	1.552691	n/a	87.704000	n/a	98.558000	n/a	
134	0.010000	1.552384	n/a	87.750000	n/a	98.552000	n/a	
135	0.010000	1.551028	n/a	87.900000	n/a	98.530000	n/a	
136	0.010000	1.550525	n/a	87.802000	n/a	98.624000	n/a	
137	0.010000	1.549098	n/a	88.132000	n/a	98.568000	n/a	
138	0.010000	1.549489	n/a	87.972000	n/a	98.658000	n/a	
139	0.010000	1.548760	n/a	88.172000	n/a	98.604000	n/a	
140	0.010000	1.550032	1.606386	87.798000	80.400000	98.634000	96.510000	
141	0.010000	1.550208	1.583817	88.048000	84.010000	98.542000	96.920000	
142	0.010000	1.550782	1.596822	87.986000	82.390000	98.538000	96.840000	
143	0.010000	1.551333	1.586742	87.892000	83.460000	98.702000	96.770000	
144	0.010000	1.548645	1.585233	88.028000	83.550000	98.576000	96.890000	
145	0.010000	1.549537	1.578674	88.160000	84.780000	98.606000	97.470000	
146	0.010000	1.547855	1.569355	88.334000	85.770000	98.544000	97.480000	
147	0.010000	1.548805	1.572428	88.084000	85.210000	98.558000	97.060000	
148	0.010000	1.546078	1.583479	88.544000	83.490000	98.760000	97.370000	
149	0.010000	1.549159	1.577989	88.060000	84.270000	98.638000	98.360000	
150	0.001000	1.526408	1.541528	91.344000	89.040000	99.270000	98.660000	
151	0.001000	1.516996	1.539887	92.212000	89.620000	99.394000	98.730000	
152	0.001000	1.514645	1.538901	92.688000	89.580000	99.420000	99.070000	
153	0.001000	1.511858	1.537884	93.016000	89.510000	99.418000	99.030000	
154	0.001000	1.510223	1.537527	93.140000	89.780000	99.372000	98.850000	
155	0.001000	1.509789	1.538256	93.410000	89.830000	99.386000	98.180000	
156	0.001000	1.508183	1.538339	93.516000	89.850000	99.424000	98.710000	
157	0.001000	1.509132	1.537413	93.494000	89.720000	99.410000	98.870000	
158	0.001000	1.505882	1.534730	93.758000	89.950000	99.414000	98.750000	
159	0.001000	1.506172	1.536105	93.708000	90.030000	99.406000	98.700000	
160	0.001000	1.506463	1.536140	93.796000	89.800000	99.408000	98.850000	
161	0.001000	1.505756	1.536490	93.938000	90.000000	99.390000	98.590000	
162	0.001000	1.504838	1.536605	94.002000	89.900000	99.406000	98.260000	
163	0.001000	1.504229	1.537355	93.994000	90.070000	99.444000	98.670000	
164	0.001000	1.503885	1.535967	94.140000	90.050000	99.454000	98.320000	
165	0.001000	1.503531	1.537634	94.180000	89.840000	99.424000	98.230000	
166	0.001000	1.502759	1.533596	94.296000	90.070000	99.470000	98.680000	
167	0.001000	1.502441	1.537167	94.384000	89.960000	99.454000	98.250000	
168	0.001000	1.501905	1.535380	94.348000	90.020000	99.492000	98.800000	
169	0.001000	1.501472	1.536361	94.496000	89.960000	99.438000	98.790000	
170	0.001000	1.500367	1.537131	94.620000	89.900000	99.498000	98.430000	
171	0.001000	1.500973	1.537662	94.526000	89.990000	99.444000	98.640000	
172	0.001000	1.500157	1.535817	94.662000	90.100000	99.504000	98.380000	
173	0.001000	1.499792	1.535480	94.746000	90.070000	99.536000	98.610000	
174	0.001000	1.499595	1.534295	94.722000	90.140000	99.542000	98.500000	
175	0.001000	1.499595	1.535906	94.850000	90.120000	99.530000	98.610000	
176	0.001000	1.499653	1.534874	94.740000	90.340000	99.578000	98.230000	
177	0.001000	1.498896	1.536753	94.894000	90.160000	99.514000	98.310000	
178	0.001000	1.497649	1.538563	95.052000	90.040000	99.584000	98.590000	
179	0.001000	1.497727	1.536122	95.074000	90.160000	99.500000	98.670000	
180	0.001000	1.497611	1.537344	95.006000	89.820000	99.562000	98.240000	
181	0.001000	1.497493	1.537408	95.108000	90.130000	99.522000	98.260000	
182	0.001000	1.496827	1.537177	95.138000	90.100000	99.586000	98.410000	
183	0.001000	1.497013	1.535306	95.196000	90.290000	99.530000	98.270000	
184	0.001000	1.497125	1.536382	95.160000	90.380000	99.530000	98.570000	
185	0.001000	1.496775	1.536718	95.238000	90.300000	99.570000	98.170000	
186	0.001000	1.496254	1.536362	95.288000	90.140000	99.542000	98.210000	
187	0.001000	1.495379	1.536606	95.300000	90.330000	99.552000	98.350000	
188	0.001000	1.495154	1.535393	95.244000	90.130000	99.554000	98.480000	
189	0.001000	1.494747	1.535938	95.498000	90.270000	99.528000	98.240000	
190	0.001000	1.495011	1.536724	95.420000	90.320000	99.540000	97.950000	
191	0.001000	1.495208	1.540018	95.384000	89.890000	99.590000	98.410000	
192	0.001000	1.494059	1.538260	95.474000	90.170000	99.536000	98.340000	
193	0.001000	1.494376	1.537193	95.490000	90.170000	99.618000	98.630000	
194	0.001000	1.495096	1.537723	95.312000	90.140000	99.560000	98.300000	
195	0.001000	1.494208	1.537059	95.376000	90.100000	99.540000	98.220000	
196	0.001000	1.494747	1.538227	95.382000	90.220000	99.628000	98.510000	
197	0.001000	1.493758	1.538291	95.610000	90.250000	99.602000	98.330000	
198	0.001000	1.493000	1.539691	95.640000	89.990000	99.622000	97.870000	
199	0.001000	1.492857	1.539034	95.696000	90.030000	99.572000	98.560000	
200	0.001000	1.493122	1.538791	95.750000	90.140000	99.564000	98.360000	
201	0.001000	1.493081	1.535755	95.680000	90.240000	99.624000	98.370000	
202	0.001000	1.493296	1.539335	95.638000	90.040000	99.586000	98.610000	
203	0.001000	1.491770	1.537837	95.720000	90.250000	99.616000	98.550000	
204	0.001000	1.492130	1.538379	95.794000	90.240000	99.528000	98.570000	
205	0.001000	1.492608	1.538754	95.812000	90.220000	99.556000	98.500000	
206	0.001000	1.491347	1.539358	96.110000	89.930000	99.580000	98.550000	
207	0.001000	1.491880	1.540622	95.806000	89.960000	99.628000	98.270000	
208	0.001000	1.491567	1.539405	95.806000	90.130000	99.606000	98.220000	
209	0.001000	1.491448	1.536815	95.996000	90.240000	99.582000	97.950000	
210	0.001000	1.490789	1.539474	96.022000	90.130000	99.674000	98.230000	
211	0.001000	1.490616	1.539574	95.954000	90.000000	99.602000	97.970000	
212	0.001000	1.491507	1.539574	95.948000	90.030000	99.596000	98.160000	
213	0.001000	1.489815	1.537189	96.072000	90.520000	99.612000	98.290000	
214	0.001000	1.490146	1.538988	96.206000	90.300000	99.594000	98.210000	
215	0.001000	1.490426	1.539077	96.020000	90.490000	99.620000	98.040000	
216	0.001000	1.490005	1.541297	96.078000	90.120000	99.612000	97.790000	
217	0.001000	1.490480	1.538645	96.106000	90.400000	99.608000	98.350000	
218	0.001000	1.490617	1.536786	96.066000	90.510000	99.614000	98.150000	
219	0.001000	1.489178	1.539197	96.268000	90.440000	99.614000	98.530000	
220	0.001000	1.489202	1.538112	96.282000	90.160000	99.616000	98.040000	
221	0.001000	1.489518	1.539296	96.182000	90.210000	99.620000	98.540000	
222	0.001000	1.489269	1.538219	96.252000	90.280000	99.570000	98.440000	
223	0.001000	1.489672	1.539935	96.318000	90.170000	99.586000	98.180000	
224	0.001000	1.488859	1.538414	96.336000	90.530000	99.586000	98.030000	
225	0.000100	1.487577	1.537197	96.480000	90.700000	99.636000	98.250000	
226	0.000100	1.485518	1.536590	96.834000	90.640000	99.670000	98.350000	
227	0.000100	1.485480	1.537228	96.794000	90.670000	99.678000	98.480000	
228	0.000100	1.485452	1.538009	96.704000	90.600000	99.696000	98.440000	
229	0.000100	1.485848	1.537510	96.680000	90.630000	99.656000	98.470000	
230	0.000100	1.485607	1.537492	96.780000	90.700000	99.716000	98.140000	
231	0.000100	1.485112	1.539100	96.812000	90.540000	99.686000	98.230000	
232	0.000100	1.485280	1.537596	96.966000	90.580000	99.658000	98.160000	
233	0.000100	1.484644	1.537448	96.894000	90.690000	99.668000	98.050000	
234	0.000100	1.484807	1.538507	96.968000	90.700000	99.686000	98.310000	
235	0.000100	1.484861	1.538270	96.900000	90.570000	99.690000	98.300000	
236	0.000100	1.483734	1.537870	97.126000	90.670000	99.704000	98.220000	
237	0.000100	1.484501	1.538983	96.908000	90.650000	99.714000	98.110000	
238	0.000100	1.483968	1.538146	96.952000	90.590000	99.714000	98.350000	
239	0.000100	1.484327	1.538435	97.076000	90.570000	99.730000	98.170000	
240	0.000100	1.483408	1.538943	97.144000	90.530000	99.726000	98.260000	
241	0.000100	1.483830	1.539625	97.160000	90.610000	99.700000	98.360000	
242	0.000100	1.484382	1.538175	96.984000	90.660000	99.612000	98.200000	
243	0.000100	1.484379	1.538596	96.922000	90.580000	99.708000	98.210000	
244	0.000100	1.483886	1.538600	97.082000	90.710000	99.690000	98.320000	
245	0.000100	1.483882	1.538229	97.044000	90.680000	99.696000	98.380000	
246	0.000100	1.483906	1.538422	97.060000	90.700000	99.686000	98.240000	
247	0.000100	1.483703	1.538633	97.182000	90.780000	99.694000	98.310000	
248	0.000100	1.483842	1.538372	97.120000	90.690000	99.698000	98.230000	
249	0.000100	1.483614	1.538732	97.136000	90.670000	99.704000	98.300000	
250	0.000100	1.483730	1.538596	97.098000	90.570000	99.666000	98.310000	
251	0.000100	1.484199	1.538981	96.994000	90.550000	99.702000	98.200000	
252	0.000100	1.483863	1.538666	97.070000	90.630000	99.702000	98.250000	
253	0.000100	1.483507	1.538156	97.118000	90.690000	99.714000	98.010000	
254	0.000100	1.483085	1.538571	97.168000	90.630000	99.706000	98.140000	
255	0.000100	1.483272	1.539082	97.192000	90.670000	99.720000	98.460000	
256	0.000100	1.483323	1.538527	97.086000	90.540000	99.716000	98.340000	
257	0.000100	1.483307	1.537872	97.022000	90.680000	99.694000	98.280000	
258	0.000100	1.483283	1.538796	97.122000	90.590000	99.718000	98.300000	
259	0.000100	1.483048	1.538783	97.210000	90.610000	99.684000	98.200000	
260	0.000100	1.483462	1.538770	97.186000	90.730000	99.712000	98.060000	
261	0.000100	1.483534	1.538495	97.210000	90.540000	99.686000	98.250000	
262	0.000100	1.483468	1.538495	97.072000	90.570000	99.652000	98.300000	
263	0.000100	1.483830	1.538826	97.060000	90.640000	99.708000	98.430000	
264	0.000100	1.483038	1.538788	97.196000	90.650000	99.716000	98.210000	
265	0.000100	1.483441	1.538865	97.020000	90.700000	99.674000	98.110000	
266	0.000100	1.483166	1.539341	97.202000	90.700000	99.690000	98.050000	
267	0.000100	1.482893	1.538644	97.240000	90.720000	99.714000	98.210000	
268	0.000100	1.482845	1.539105	97.180000	90.690000	99.698000	98.290000	
269	0.000100	1.483479	1.538761	97.056000	90.650000	99.676000	98.150000	
270	0.000100	1.482654	1.539325	97.172000	90.380000	99.726000	98.430000	
271	0.000100	1.482544	1.540110	97.296000	90.570000	99.678000	98.310000	
272	0.000100	1.482676	1.538826	97.214000	90.760000	99.714000	98.190000	
273	0.000100	1.482709	1.538970	97.206000	90.660000	99.700000	98.200000	
274	0.000100	1.483042	1.538684	97.188000	90.760000	99.670000	98.110000	
275	0.000100	1.483000	1.539452	97.132000	90.680000	99.700000	98.090000	
276	0.000100	1.482680	1.539655	97.152000	90.570000	99.698000	98.260000	
277	0.000100	1.482626	1.539233	97.184000	90.710000	99.686000	98.110000	
278	0.000100	1.482970	1.539341	97.162000	90.570000	99.722000	98.120000	
279	0.000100	1.482474	1.539052	97.294000	90.700000	99.706000	97.980000	
280	0.000100	1.482010	1.538412	97.286000	90.700000	99.700000	98.260000	
281	0.000100	1.482370	1.538982	97.326000	90.680000	99.700000	98.050000	
282	0.000100	1.482533	1.538440	97.212000	90.760000	99.730000	97.990000	
283	0.000100	1.482803	1.538489	97.244000	90.540000	99.694000	98.190000	
284	0.000100	1.483160	1.539016	97.224000	90.610000	99.704000	98.200000	
285	0.000100	1.482552	1.539122	97.270000	90.620000	99.708000	98.400000	
286	0.000100	1.482085	1.539295	97.262000	90.580000	99.714000	98.220000	
287	0.000100	1.482958	1.538465	97.204000	90.470000	99.724000	98.260000	
288	0.000100	1.482687	1.538913	97.230000	90.630000	99.664000	98.260000	
289	0.000100	1.482272	1.540040	97.334000	90.610000	99.698000	97.980000	
290	0.000100	1.482276	1.538834	97.306000	90.720000	99.676000	98.290000	
291	0.000100	1.482282	1.538451	97.342000	90.690000	99.690000	97.950000	
292	0.000100	1.481981	1.538364	97.300000	90.730000	99.708000	98.360000	
293	0.000100	1.483228	1.539539	97.270000	90.550000	99.652000	98.150000	
294	0.000100	1.482358	1.538122	97.286000	90.830000	99.708000	98.260000	
295	0.000100	1.482241	1.538670	97.296000	90.700000	99.666000	98.170000	
296	0.000100	1.482239	1.539986	97.316000	90.680000	99.692000	97.990000	
297	0.000100	1.482472	1.539144	97.310000	90.650000	99.678000	98.400000	
298	0.000100	1.482348	1.539346	97.332000	90.620000	99.700000	98.280000	
299	0.000100	1.482412	1.538458	97.312000	90.630000	99.686000	98.120000	
